%%    125.070    19.500    0     0.125  -100.000   100.000
% HI4PI gauss data -------------
%   l, b, RA, DEC, beam interpolated N_HI, N_H2_dark, N_H2_tot  
% 125.070 ;  19.500 ;  27.730 ;  82.124 ;  0.980E+21 ;  0.254E+21 ;  0.604E+21
% nearest HEALPix pixel: l, b, RA, DEC, N_HI, N_H2_dark, N_H2_tot
% 125.068 ;  19.511 ;  27.737 ;  82.134 ;  0.973E+21 ;  0.243E+21 ;  0.593E+21
% GASS III survey --------------
% NH - median within 6 arcmin radius   0.00    
% NH - mean within specified beam      0.00    
% EBHIS survey -----------------
% NH  within specified beam           0.980E+21
%%EBHIS   160  datapoints: v_lsr [km/s] and T_B [K]
     -99.09     0.331
     -97.80     0.213
     -96.52     0.201
     -95.23     0.140
     -93.94     0.171
     -92.65     0.197
     -91.36     0.220
     -90.08     0.239
     -88.79     0.217
     -87.50     0.066
     -86.21     0.103
     -84.92     0.355
     -83.63     0.430
     -82.35     0.262
     -81.06     0.367
     -79.77     0.351
     -78.48     0.476
     -77.19     0.488
     -75.90     0.358
     -74.62     0.538
     -73.33     0.665
     -72.04     0.906
     -70.75     1.019
     -69.46     1.014
     -68.18     1.123
     -66.89     1.233
     -65.60     1.334
     -64.31     1.235
     -63.02     1.153
     -61.73     1.268
     -60.45     1.171
     -59.16     1.091
     -57.87     1.008
     -56.58     0.956
     -55.29     0.924
     -54.00     0.934
     -52.72     0.965
     -51.43     0.838
     -50.14     0.839
     -48.85     0.934
     -47.56     0.906
     -46.28     0.897
     -44.99     0.901
     -43.70     0.840
     -42.41     1.043
     -41.12     1.004
     -39.83     1.102
     -38.55     1.220
     -37.26     1.233
     -35.97     1.331
     -34.68     1.430
     -33.39     1.527
     -32.10     1.763
     -30.82     2.093
     -29.53     2.274
     -28.24     2.616
     -26.95     2.984
     -25.66     3.454
     -24.38     3.994
     -23.09     4.725
     -21.80     5.499
     -20.51     6.737
     -19.22     8.513
     -17.93    10.636
     -16.65    12.637
     -15.36    14.181
     -14.07    14.494
     -12.78    14.451
     -11.49    14.088
     -10.20    14.541
      -8.92    15.692
      -7.63    16.878
      -6.34    17.568
      -5.05    17.580
      -3.76    15.987
      -2.48    13.964
      -1.19    14.730
       0.10    17.794
       1.39    17.798
       2.68    15.757
       3.97    15.822
       5.25    14.486
       6.54    13.185
       7.83    10.661
       9.12     6.354
      10.41     3.461
      11.70     2.270
      12.98     1.779
      14.27     1.287
      15.56     1.087
      16.85     0.885
      18.14     0.645
      19.42     0.531
      20.71     0.274
      22.00     0.282
      23.29     0.223
      24.58     0.147
      25.87     0.137
      27.15     0.156
      28.44     0.075
      29.73     0.146
      31.02    -0.080
      32.31    -0.005
      33.60     0.021
      34.88    -0.097
      36.17     0.006
      37.46     0.103
      38.75     0.156
      40.04     0.104
      41.32     0.037
      42.61    -0.049
      43.90    -0.046
      45.19    -0.083
      46.48    -0.065
      47.77    -0.131
      49.05    -0.022
      50.34    -0.010
      51.63    -0.018
      52.92    -0.087
      54.21     0.038
      55.50     0.115
      56.78    -0.016
      58.07    -0.012
      59.36    -0.023
      60.65     0.003
      61.94     0.066
      63.22     0.057
      64.51     0.096
      65.80    -0.008
      67.09    -0.040
      68.38    -0.035
      69.67    -0.174
      70.95     0.022
      72.24     0.041
      73.53    -0.052
      74.82    -0.024
      76.11    -0.034
      77.40    -0.091
      78.68    -0.030
      79.97    -0.043
      81.26     0.097
      82.55     0.239
      83.84     0.056
      85.12    -0.114
      86.41     0.010
      87.70     0.000
      88.99     0.035
      90.28     0.125
      91.57     0.010
      92.85    -0.062
      94.14     0.040
      95.43     0.050
      96.72    -0.062
      98.01     0.012
      99.30     0.062
%%GASS      0  datapoints: v_lsr [km/s] and T_B [K]
%%gauss   201  datapoints: v_lsr [km/s] and T_B [K]
    -100.00     0.294
     -99.00     0.275
     -98.00     0.258
     -97.00     0.243
     -96.00     0.229
     -95.00     0.217
     -94.00     0.207
     -93.00     0.199
     -92.00     0.194
     -91.00     0.190
     -90.00     0.188
     -89.00     0.189
     -88.00     0.193
     -87.00     0.199
     -86.00     0.208
     -85.00     0.220
     -84.00     0.235
     -83.00     0.255
     -82.00     0.278
     -81.00     0.306
     -80.00     0.340
     -79.00     0.379
     -78.00     0.425
     -77.00     0.478
     -76.00     0.538
     -75.00     0.605
     -74.00     0.679
     -73.00     0.758
     -72.00     0.840
     -71.00     0.922
     -70.00     1.002
     -69.00     1.076
     -68.00     1.140
     -67.00     1.191
     -66.00     1.227
     -65.00     1.246
     -64.00     1.250
     -63.00     1.238
     -62.00     1.213
     -61.00     1.179
     -60.00     1.139
     -59.00     1.097
     -58.00     1.054
     -57.00     1.013
     -56.00     0.977
     -55.00     0.945
     -54.00     0.919
     -53.00     0.898
     -52.00     0.884
     -51.00     0.875
     -50.00     0.871
     -49.00     0.872
     -48.00     0.878
     -47.00     0.889
     -46.00     0.903
     -45.00     0.922
     -44.00     0.944
     -43.00     0.971
     -42.00     1.002
     -41.00     1.038
     -40.00     1.079
     -39.00     1.127
     -38.00     1.182
     -37.00     1.247
     -36.00     1.323
     -35.00     1.413
     -34.00     1.519
     -33.00     1.645
     -32.00     1.793
     -31.00     1.967
     -30.00     2.169
     -29.00     2.404
     -28.00     2.673
     -27.00     2.980
     -26.00     3.329
     -25.00     3.727
     -24.00     4.185
     -23.00     4.728
     -22.00     5.399
     -21.00     6.260
     -20.00     7.386
     -19.00     8.818
     -18.00    10.491
     -17.00    12.176
     -16.00    13.542
     -15.00    14.334
     -14.00    14.543
     -13.00    14.398
     -12.00    14.219
     -11.00    14.275
     -10.00    14.703
      -9.00    15.483
      -8.00    16.455
      -7.00    17.356
      -6.00    17.818
      -5.00    17.464
      -4.00    16.250
      -3.00    14.714
      -2.00    13.922
      -1.00    15.058
       0.00    17.593
       1.00    18.326
       2.00    16.575
       3.00    15.701
       4.00    15.807
       5.00    14.820
       6.00    13.686
       7.00    12.592
       8.00    10.112
       9.00     6.754
      10.00     4.138
      11.00     2.746
      12.00     2.094
      13.00     1.720
      14.00     1.436
      15.00     1.196
      16.00     0.991
      17.00     0.817
      18.00     0.670
      19.00     0.547
      20.00     0.444
      21.00     0.360
      22.00     0.291
      23.00     0.234
      24.00     0.189
      25.00     0.152
      26.00     0.122
      27.00     0.098
      28.00     0.079
      29.00     0.064
      30.00     0.052
      31.00     0.042
      32.00     0.035
      33.00     0.028
      34.00     0.023
      35.00     0.019
      36.00     0.016
      37.00     0.014
      38.00     0.011
      39.00     0.010
      40.00     0.008
      41.00     0.007
      42.00     0.006
      43.00     0.005
      44.00     0.004
      45.00     0.004
      46.00     0.003
      47.00     0.003
      48.00     0.002
      49.00     0.002
      50.00     0.002
      51.00     0.001
      52.00     0.001
      53.00     0.001
      54.00     0.001
      55.00     0.001
      56.00     0.001
      57.00     0.001
      58.00     0.000
      59.00     0.000
      60.00     0.000
      61.00     0.000
      62.00     0.000
      63.00     0.000
      64.00     0.000
      65.00     0.000
      66.00     0.000
      67.00     0.000
      68.00     0.000
      69.00     0.000
      70.00     0.000
      71.00     0.000
      72.00     0.000
      73.00     0.000
      74.00     0.000
      75.00     0.000
      76.00     0.000
      77.00     0.000
      78.00     0.000
      79.00     0.000
      80.00     0.000
      81.00     0.000
      82.00     0.000
      83.00     0.000
      84.00     0.000
      85.00     0.000
      86.00     0.000
      87.00     0.000
      88.00     0.000
      89.00     0.000
      90.00     0.000
      91.00     0.000
      92.00     0.000
      93.00     0.000
      94.00     0.000
      95.00     0.000
      96.00     0.000
      97.00     0.000
      98.00     0.000
      99.00     0.000
     100.00     0.000
%% HI4PI Gaussians - height, velocity, width (sigma) 
%      9.288    -8.095    11.230
%      8.074    -5.776     3.224
%      0.899   -41.540    24.519
%      5.950   -14.856     3.102
%     10.273     0.865     1.478
%      0.822  -127.452    17.393
%      7.955     6.805     1.706
%      7.213     3.952     1.243
%      0.856  -144.830     4.557
%      0.648   -66.168     5.775
%% Gaussians are derived from EBHIS                  
