%%    123.500    19.630    0     0.125  -100.000   100.000
% HI4PI gauss data -------------
%   l, b, RA, DEC, beam interpolated N_HI, N_H2_dark, N_H2_tot  
% 123.500 ;  19.630 ;  16.953 ;  82.484 ;  0.116E+22 ;  0.298E+21 ;  0.626E+21
% nearest HEALPix pixel: l, b, RA, DEC, N_HI, N_H2_dark, N_H2_tot
% 123.530 ;  19.630 ;  17.170 ;  82.481 ;  0.115E+22 ;  0.285E+21 ;  0.614E+21
% GASS III survey --------------
% NH - median within 6 arcmin radius   0.00    
% NH - mean within specified beam      0.00    
% EBHIS survey -----------------
% NH  within specified beam           0.115E+22
%%EBHIS   160  datapoints: v_lsr [km/s] and T_B [K]
     -99.09     0.402
     -97.80     0.524
     -96.52     0.496
     -95.23     0.322
     -93.94     0.313
     -92.65     0.486
     -91.36     0.386
     -90.08     0.229
     -88.79     0.262
     -87.50     0.413
     -86.21     0.528
     -84.92     0.467
     -83.63     0.557
     -82.35     0.762
     -81.06     1.170
     -79.77     1.474
     -78.48     1.931
     -77.19     2.048
     -75.90     2.054
     -74.62     2.072
     -73.33     1.966
     -72.04     1.749
     -70.75     1.692
     -69.46     1.725
     -68.18     1.861
     -66.89     2.072
     -65.60     2.160
     -64.31     2.552
     -63.02     2.883
     -61.73     2.998
     -60.45     2.955
     -59.16     2.838
     -57.87     2.900
     -56.58     2.757
     -55.29     2.313
     -54.00     2.125
     -52.72     1.981
     -51.43     1.639
     -50.14     1.492
     -48.85     1.320
     -47.56     1.244
     -46.28     1.401
     -44.99     1.348
     -43.70     1.314
     -42.41     1.325
     -41.12     1.513
     -39.83     1.378
     -38.55     1.363
     -37.26     1.495
     -35.97     1.611
     -34.68     1.840
     -33.39     1.875
     -32.10     2.114
     -30.82     2.218
     -29.53     2.272
     -28.24     2.646
     -26.95     2.881
     -25.66     3.161
     -24.38     3.502
     -23.09     3.870
     -21.80     4.227
     -20.51     5.019
     -19.22     6.172
     -17.93     8.130
     -16.65    11.032
     -15.36    14.958
     -14.07    18.357
     -12.78    19.837
     -11.49    18.839
     -10.20    16.338
      -8.92    13.846
      -7.63    13.647
      -6.34    19.080
      -5.05    26.526
      -3.76    30.503
      -2.48    25.211
      -1.19    17.440
       0.10    12.975
       1.39    12.576
       2.68    15.300
       3.97    18.551
       5.25    19.467
       6.54    16.121
       7.83    10.077
       9.12     5.463
      10.41     3.188
      11.70     2.179
      12.98     1.453
      14.27     1.232
      15.56     0.749
      16.85     0.719
      18.14     0.578
      19.42     0.353
      20.71     0.351
      22.00     0.286
      23.29     0.130
      24.58     0.073
      25.87     0.015
      27.15     0.004
      28.44     0.034
      29.73     0.031
      31.02    -0.054
      32.31    -0.082
      33.60    -0.078
      34.88    -0.112
      36.17    -0.052
      37.46    -0.092
      38.75    -0.113
      40.04    -0.027
      41.32     0.035
      42.61     0.095
      43.90     0.081
      45.19    -0.052
      46.48    -0.065
      47.77     0.030
      49.05    -0.097
      50.34    -0.105
      51.63    -0.021
      52.92    -0.044
      54.21     0.025
      55.50     0.012
      56.78    -0.056
      58.07     0.074
      59.36     0.109
      60.65    -0.022
      61.94     0.006
      63.22    -0.032
      64.51    -0.072
      65.80     0.012
      67.09     0.025
      68.38     0.031
      69.67    -0.069
      70.95    -0.003
      72.24    -0.061
      73.53    -0.078
      74.82    -0.006
      76.11     0.050
      77.40    -0.012
      78.68    -0.026
      79.97     0.083
      81.26     0.150
      82.55     0.030
      83.84    -0.064
      85.12    -0.013
      86.41     0.097
      87.70     0.131
      88.99     0.069
      90.28    -0.002
      91.57    -0.061
      92.85    -0.145
      94.14    -0.038
      95.43     0.021
      96.72     0.029
      98.01    -0.024
      99.30    -0.041
%%GASS      0  datapoints: v_lsr [km/s] and T_B [K]
%%gauss   201  datapoints: v_lsr [km/s] and T_B [K]
    -100.00     0.367
     -99.00     0.369
     -98.00     0.372
     -97.00     0.372
     -96.00     0.369
     -95.00     0.362
     -94.00     0.353
     -93.00     0.343
     -92.00     0.335
     -91.00     0.331
     -90.00     0.333
     -89.00     0.342
     -88.00     0.361
     -87.00     0.391
     -86.00     0.436
     -85.00     0.504
     -84.00     0.602
     -83.00     0.741
     -82.00     0.927
     -81.00     1.159
     -80.00     1.423
     -79.00     1.689
     -78.00     1.919
     -77.00     2.076
     -76.00     2.138
     -75.00     2.106
     -74.00     2.006
     -73.00     1.877
     -72.00     1.758
     -71.00     1.683
     -70.00     1.672
     -69.00     1.729
     -68.00     1.847
     -67.00     2.015
     -66.00     2.213
     -65.00     2.423
     -64.00     2.625
     -63.00     2.799
     -62.00     2.929
     -61.00     3.003
     -60.00     3.014
     -59.00     2.962
     -58.00     2.852
     -57.00     2.698
     -56.00     2.513
     -55.00     2.314
     -54.00     2.116
     -53.00     1.931
     -52.00     1.768
     -51.00     1.632
     -50.00     1.522
     -49.00     1.440
     -48.00     1.380
     -47.00     1.341
     -46.00     1.319
     -45.00     1.310
     -44.00     1.312
     -43.00     1.323
     -42.00     1.344
     -41.00     1.372
     -40.00     1.407
     -39.00     1.449
     -38.00     1.498
     -37.00     1.555
     -36.00     1.621
     -35.00     1.699
     -34.00     1.790
     -33.00     1.895
     -32.00     2.015
     -31.00     2.153
     -30.00     2.307
     -29.00     2.480
     -28.00     2.670
     -27.00     2.879
     -26.00     3.107
     -25.00     3.352
     -24.00     3.617
     -23.00     3.909
     -22.00     4.250
     -21.00     4.692
     -20.00     5.342
     -19.00     6.363
     -18.00     7.938
     -17.00    10.185
     -16.00    13.012
     -15.00    16.006
     -14.00    18.475
     -13.00    19.737
     -12.00    19.503
     -11.00    18.021
     -10.00    15.878
      -9.00    13.911
      -8.00    13.348
      -7.00    15.600
      -6.00    20.918
      -5.00    27.025
      -4.00    30.331
      -3.00    28.196
      -2.00    22.284
      -1.00    16.466
       0.00    13.124
       1.00    12.401
       2.00    13.611
       3.00    16.048
       4.00    18.641
       5.00    19.720
       6.00    18.005
       7.00    13.943
       8.00     9.383
       9.00     5.868
      10.00     3.732
      11.00     2.568
      12.00     1.914
      13.00     1.500
      14.00     1.206
      15.00     0.980
      16.00     0.801
      17.00     0.657
      18.00     0.538
      19.00     0.441
      20.00     0.360
      21.00     0.293
      22.00     0.238
      23.00     0.192
      24.00     0.155
      25.00     0.124
      26.00     0.099
      27.00     0.079
      28.00     0.063
      29.00     0.050
      30.00     0.039
      31.00     0.031
      32.00     0.024
      33.00     0.019
      34.00     0.015
      35.00     0.012
      36.00     0.009
      37.00     0.007
      38.00     0.006
      39.00     0.005
      40.00     0.004
      41.00     0.003
      42.00     0.002
      43.00     0.002
      44.00     0.002
      45.00     0.001
      46.00     0.001
      47.00     0.001
      48.00     0.001
      49.00     0.001
      50.00     0.000
      51.00     0.000
      52.00     0.000
      53.00     0.000
      54.00     0.000
      55.00     0.000
      56.00     0.000
      57.00     0.000
      58.00     0.000
      59.00     0.000
      60.00     0.000
      61.00     0.000
      62.00     0.000
      63.00     0.000
      64.00     0.000
      65.00     0.000
      66.00     0.000
      67.00     0.000
      68.00     0.000
      69.00     0.000
      70.00     0.000
      71.00     0.000
      72.00     0.000
      73.00     0.000
      74.00     0.000
      75.00     0.000
      76.00     0.000
      77.00     0.000
      78.00     0.000
      79.00     0.000
      80.00     0.000
      81.00     0.000
      82.00     0.000
      83.00     0.000
      84.00     0.000
      85.00     0.000
      86.00     0.000
      87.00     0.000
      88.00     0.000
      89.00     0.000
      90.00     0.000
      91.00     0.000
      92.00     0.000
      93.00     0.000
      94.00     0.000
      95.00     0.000
      96.00     0.000
      97.00     0.000
      98.00     0.000
      99.00     0.000
     100.00     0.000
%% HI4PI Gaussians - height, velocity, width (sigma) 
%      5.955    -9.639    11.813
%     13.922   -12.772     2.811
%     19.733    -3.969     1.926
%      5.635     0.722     5.481
%      1.216   -48.462    25.395
%     12.946     5.105     2.059
%      0.744  -127.233    16.560
%      1.754   -60.443     5.341
%      1.626   -76.451     3.510
%      0.076  -274.759    26.789
%% Gaussians are derived from EBHIS                  
