%%    120.500    18.630    0     0.125  -100.000   100.000
% HI4PI gauss data -------------
%   l, b, RA, DEC, beam interpolated N_HI, N_H2_dark, N_H2_tot  
% 120.500 ;  18.630 ; 357.600 ;  81.212 ;  0.118E+22 ;  0.449E+21 ;  0.874E+21
% nearest HEALPix pixel: l, b, RA, DEC, N_HI, N_H2_dark, N_H2_tot
% 120.498 ;  18.642 ; 357.568 ;  81.224 ;  0.119E+22 ;  0.480E+21 ;  0.907E+21
% GASS III survey --------------
% NH - median within 6 arcmin radius   0.00    
% NH - mean within specified beam      0.00    
% EBHIS survey -----------------
% NH  within specified beam           0.118E+22
%%EBHIS   160  datapoints: v_lsr [km/s] and T_B [K]
     -99.09     0.365
     -97.80     0.342
     -96.52     0.373
     -95.23     0.524
     -93.94     0.324
     -92.65     0.397
     -91.36     0.383
     -90.08     0.503
     -88.79     0.526
     -87.50     0.748
     -86.21     0.754
     -84.92     0.632
     -83.63     1.021
     -82.35     0.951
     -81.06     1.139
     -79.77     1.233
     -78.48     1.090
     -77.19     1.191
     -75.90     1.471
     -74.62     1.808
     -73.33     1.710
     -72.04     1.914
     -70.75     2.114
     -69.46     2.139
     -68.18     2.374
     -66.89     2.493
     -65.60     2.403
     -64.31     2.286
     -63.02     2.180
     -61.73     2.027
     -60.45     1.976
     -59.16     1.961
     -57.87     1.697
     -56.58     1.583
     -55.29     1.536
     -54.00     1.383
     -52.72     1.456
     -51.43     1.415
     -50.14     1.322
     -48.85     1.470
     -47.56     1.387
     -46.28     1.457
     -44.99     1.438
     -43.70     1.494
     -42.41     1.521
     -41.12     1.360
     -39.83     1.406
     -38.55     1.501
     -37.26     1.379
     -35.97     1.442
     -34.68     1.428
     -33.39     1.386
     -32.10     1.447
     -30.82     1.484
     -29.53     1.663
     -28.24     1.776
     -26.95     1.750
     -25.66     2.219
     -24.38     2.963
     -23.09     4.082
     -21.80     7.164
     -20.51     9.866
     -19.22     9.680
     -17.93     8.901
     -16.65     9.853
     -15.36    12.958
     -14.07    15.896
     -12.78    17.618
     -11.49    19.885
     -10.20    24.555
      -8.92    23.506
      -7.63    19.474
      -6.34    17.933
      -5.05    19.429
      -3.76    25.886
      -2.48    35.234
      -1.19    40.606
       0.10    34.482
       1.39    20.724
       2.68    11.280
       3.97     7.180
       5.25     5.054
       6.54     3.695
       7.83     2.767
       9.12     2.307
      10.41     1.873
      11.70     1.482
      12.98     1.094
      14.27     0.809
      15.56     0.560
      16.85     0.454
      18.14     0.456
      19.42     0.381
      20.71     0.249
      22.00     0.265
      23.29     0.216
      24.58     0.127
      25.87     0.054
      27.15     0.062
      28.44    -0.090
      29.73    -0.121
      31.02    -0.028
      32.31     0.048
      33.60     0.066
      34.88     0.064
      36.17     0.017
      37.46    -0.001
      38.75    -0.002
      40.04     0.052
      41.32    -0.066
      42.61     0.037
      43.90    -0.045
      45.19     0.050
      46.48    -0.008
      47.77     0.058
      49.05     0.051
      50.34     0.001
      51.63    -0.035
      52.92    -0.107
      54.21    -0.125
      55.50    -0.164
      56.78    -0.061
      58.07     0.080
      59.36    -0.020
      60.65     0.014
      61.94    -0.008
      63.22    -0.007
      64.51    -0.082
      65.80    -0.104
      67.09    -0.103
      68.38    -0.004
      69.67    -0.085
      70.95     0.035
      72.24    -0.159
      73.53    -0.096
      74.82    -0.122
      76.11    -0.021
      77.40     0.122
      78.68    -0.039
      79.97    -0.132
      81.26    -0.112
      82.55    -0.071
      83.84    -0.033
      85.12     0.057
      86.41    -0.005
      87.70    -0.032
      88.99    -0.032
      90.28     0.049
      91.57     0.090
      92.85    -0.051
      94.14    -0.127
      95.43    -0.086
      96.72     0.080
      98.01     0.005
      99.30    -0.015
%%GASS      0  datapoints: v_lsr [km/s] and T_B [K]
%%gauss   201  datapoints: v_lsr [km/s] and T_B [K]
    -100.00     0.387
     -99.00     0.380
     -98.00     0.378
     -97.00     0.380
     -96.00     0.385
     -95.00     0.394
     -94.00     0.408
     -93.00     0.426
     -92.00     0.449
     -91.00     0.477
     -90.00     0.510
     -89.00     0.549
     -88.00     0.594
     -87.00     0.644
     -86.00     0.699
     -85.00     0.759
     -84.00     0.823
     -83.00     0.889
     -82.00     0.959
     -81.00     1.031
     -80.00     1.106
     -79.00     1.185
     -78.00     1.270
     -77.00     1.362
     -76.00     1.463
     -75.00     1.574
     -74.00     1.694
     -73.00     1.820
     -72.00     1.948
     -71.00     2.073
     -70.00     2.189
     -69.00     2.286
     -68.00     2.356
     -67.00     2.393
     -66.00     2.394
     -65.00     2.360
     -64.00     2.296
     -63.00     2.209
     -62.00     2.109
     -61.00     2.004
     -60.00     1.901
     -59.00     1.804
     -58.00     1.717
     -57.00     1.642
     -56.00     1.580
     -55.00     1.531
     -54.00     1.493
     -53.00     1.465
     -52.00     1.446
     -51.00     1.434
     -50.00     1.428
     -49.00     1.427
     -48.00     1.428
     -47.00     1.431
     -46.00     1.436
     -45.00     1.440
     -44.00     1.443
     -43.00     1.445
     -42.00     1.445
     -41.00     1.443
     -40.00     1.438
     -39.00     1.431
     -38.00     1.422
     -37.00     1.413
     -36.00     1.405
     -35.00     1.400
     -34.00     1.400
     -33.00     1.408
     -32.00     1.429
     -31.00     1.468
     -30.00     1.529
     -29.00     1.621
     -28.00     1.749
     -27.00     1.924
     -26.00     2.159
     -25.00     2.493
     -24.00     3.082
     -23.00     4.333
     -22.00     6.587
     -21.00     9.090
     -20.00    10.144
     -19.00     9.499
     -18.00     8.833
     -17.00     9.410
     -16.00    11.265
     -15.00    13.836
     -14.00    16.081
     -13.00    17.313
     -12.00    18.655
     -11.00    21.776
     -10.00    24.815
      -9.00    23.870
      -8.00    20.423
      -7.00    18.242
      -6.00    18.038
      -5.00    19.745
      -4.00    24.227
      -3.00    31.370
      -2.00    38.267
      -1.00    40.528
       0.00    35.279
       1.00    24.877
       2.00    15.512
       3.00     9.815
       4.00     6.907
       5.00     5.351
       6.00     4.317
       7.00     3.512
       8.00     2.856
       9.00     2.322
      10.00     1.890
      11.00     1.543
      12.00     1.266
      13.00     1.045
      14.00     0.866
      15.00     0.721
      16.00     0.602
      17.00     0.502
      18.00     0.420
      19.00     0.350
      20.00     0.292
      21.00     0.243
      22.00     0.202
      23.00     0.168
      24.00     0.140
      25.00     0.116
      26.00     0.098
      27.00     0.082
      28.00     0.070
      29.00     0.060
      30.00     0.052
      31.00     0.046
      32.00     0.041
      33.00     0.036
      34.00     0.032
      35.00     0.029
      36.00     0.026
      37.00     0.024
      38.00     0.022
      39.00     0.020
      40.00     0.018
      41.00     0.016
      42.00     0.015
      43.00     0.013
      44.00     0.012
      45.00     0.011
      46.00     0.010
      47.00     0.009
      48.00     0.008
      49.00     0.007
      50.00     0.007
      51.00     0.006
      52.00     0.005
      53.00     0.005
      54.00     0.004
      55.00     0.004
      56.00     0.003
      57.00     0.003
      58.00     0.003
      59.00     0.003
      60.00     0.002
      61.00     0.002
      62.00     0.002
      63.00     0.002
      64.00     0.001
      65.00     0.001
      66.00     0.001
      67.00     0.001
      68.00     0.001
      69.00     0.001
      70.00     0.001
      71.00     0.001
      72.00     0.001
      73.00     0.000
      74.00     0.000
      75.00     0.000
      76.00     0.000
      77.00     0.000
      78.00     0.000
      79.00     0.000
      80.00     0.000
      81.00     0.000
      82.00     0.000
      83.00     0.000
      84.00     0.000
      85.00     0.000
      86.00     0.000
      87.00     0.000
      88.00     0.000
      89.00     0.000
      90.00     0.000
      91.00     0.000
      92.00     0.000
      93.00     0.000
      94.00     0.000
      95.00     0.000
      96.00     0.000
      97.00     0.000
      98.00     0.000
      99.00     0.000
     100.00     0.000
%% HI4PI Gaussians - height, velocity, width (sigma) 
%     16.651    -7.397     7.794
%     27.624    -1.100     1.873
%      1.419   -44.248    28.742
%      1.232  -126.461    13.105
%      8.458    -9.819     1.296
%      1.262   -66.826     6.236
%      4.999   -20.416     1.443
%      4.195   -13.680     1.543
%      0.423   -80.394     5.312
%      0.323    14.018     5.983
%      1.999    -0.282     0.847
%% Gaussians are derived from EBHIS                  
