%%    122.220    18.750    0     0.125  -100.000   100.000
% HI4PI gauss data -------------
%   l, b, RA, DEC, beam interpolated N_HI, N_H2_dark, N_H2_tot  
% 122.220 ;  18.750 ;   8.242 ;  81.596 ;  0.124E+22 ;  0.299E+21 ;  0.522E+21
% nearest HEALPix pixel: l, b, RA, DEC, N_HI, N_H2_dark, N_H2_tot
% 122.212 ;  18.761 ;   8.184 ;  81.606 ;  0.124E+22 ;  0.320E+21 ;  0.544E+21
% GASS III survey --------------
% NH - median within 6 arcmin radius   0.00    
% NH - mean within specified beam      0.00    
% EBHIS survey -----------------
% NH  within specified beam           0.123E+22
%%EBHIS   160  datapoints: v_lsr [km/s] and T_B [K]
     -99.09     0.263
     -97.80     0.260
     -96.52     0.290
     -95.23     0.317
     -93.94     0.270
     -92.65     0.364
     -91.36     0.426
     -90.08     0.391
     -88.79     0.545
     -87.50     0.603
     -86.21     0.679
     -84.92     0.801
     -83.63     0.999
     -82.35     1.146
     -81.06     1.557
     -79.77     2.003
     -78.48     2.270
     -77.19     2.743
     -75.90     3.184
     -74.62     3.627
     -73.33     4.205
     -72.04     4.529
     -70.75     4.797
     -69.46     4.972
     -68.18     5.169
     -66.89     5.292
     -65.60     5.079
     -64.31     4.691
     -63.02     4.612
     -61.73     4.495
     -60.45     3.728
     -59.16     3.020
     -57.87     2.567
     -56.58     2.399
     -55.29     2.424
     -54.00     2.203
     -52.72     1.830
     -51.43     1.778
     -50.14     1.392
     -48.85     1.430
     -47.56     1.193
     -46.28     1.196
     -44.99     1.382
     -43.70     1.121
     -42.41     1.137
     -41.12     1.159
     -39.83     1.267
     -38.55     1.205
     -37.26     1.206
     -35.97     1.233
     -34.68     1.462
     -33.39     1.471
     -32.10     1.765
     -30.82     2.191
     -29.53     2.675
     -28.24     2.555
     -26.95     2.642
     -25.66     2.594
     -24.38     3.241
     -23.09     4.366
     -21.80     7.423
     -20.51    12.406
     -19.22    13.083
     -17.93    10.845
     -16.65    11.351
     -15.36    15.825
     -14.07    22.965
     -12.78    28.207
     -11.49    25.852
     -10.20    21.902
      -8.92    20.472
      -7.63    19.937
      -6.34    19.030
      -5.05    19.346
      -3.76    20.201
      -2.48    19.426
      -1.19    18.436
       0.10    17.294
       1.39    17.385
       2.68    13.877
       3.97     8.569
       5.25     6.024
       6.54     5.275
       7.83     4.566
       9.12     3.899
      10.41     3.133
      11.70     2.292
      12.98     1.699
      14.27     1.318
      15.56     0.927
      16.85     0.722
      18.14     0.556
      19.42     0.471
      20.71     0.350
      22.00     0.127
      23.29     0.104
      24.58     0.113
      25.87    -0.009
      27.15    -0.005
      28.44    -0.095
      29.73    -0.096
      31.02    -0.066
      32.31    -0.180
      33.60    -0.135
      34.88    -0.088
      36.17     0.024
      37.46    -0.064
      38.75     0.152
      40.04     0.174
      41.32     0.129
      42.61    -0.173
      43.90    -0.238
      45.19    -0.012
      46.48     0.129
      47.77     0.024
      49.05     0.128
      50.34    -0.024
      51.63    -0.116
      52.92    -0.005
      54.21     0.003
      55.50    -0.079
      56.78     0.060
      58.07    -0.076
      59.36    -0.060
      60.65     0.017
      61.94    -0.197
      63.22    -0.065
      64.51    -0.068
      65.80     0.009
      67.09    -0.050
      68.38    -0.096
      69.67    -0.067
      70.95     0.007
      72.24    -0.044
      73.53     0.003
      74.82     0.151
      76.11    -0.021
      77.40     0.061
      78.68     0.064
      79.97    -0.105
      81.26    -0.035
      82.55    -0.093
      83.84    -0.152
      85.12    -0.045
      86.41     0.046
      87.70    -0.025
      88.99     0.034
      90.28     0.064
      91.57     0.064
      92.85     0.138
      94.14     0.014
      95.43    -0.108
      96.72    -0.045
      98.01     0.134
      99.30    -0.029
%%GASS      0  datapoints: v_lsr [km/s] and T_B [K]
%%gauss   201  datapoints: v_lsr [km/s] and T_B [K]
    -100.00     0.274
     -99.00     0.274
     -98.00     0.276
     -97.00     0.282
     -96.00     0.291
     -95.00     0.303
     -94.00     0.320
     -93.00     0.340
     -92.00     0.366
     -91.00     0.399
     -90.00     0.438
     -89.00     0.487
     -88.00     0.548
     -87.00     0.622
     -86.00     0.713
     -85.00     0.824
     -84.00     0.959
     -83.00     1.121
     -82.00     1.315
     -81.00     1.542
     -80.00     1.805
     -79.00     2.102
     -78.00     2.430
     -77.00     2.785
     -76.00     3.157
     -75.00     3.535
     -74.00     3.907
     -73.00     4.256
     -72.00     4.567
     -71.00     4.825
     -70.00     5.018
     -69.00     5.137
     -68.00     5.177
     -67.00     5.138
     -66.00     5.027
     -65.00     4.861
     -64.00     4.694
     -63.00     4.625
     -62.00     4.500
     -61.00     4.014
     -60.00     3.487
     -59.00     3.122
     -58.00     2.832
     -57.00     2.577
     -56.00     2.364
     -55.00     2.203
     -54.00     2.023
     -53.00     1.839
     -52.00     1.703
     -51.00     1.596
     -50.00     1.505
     -49.00     1.429
     -48.00     1.364
     -47.00     1.311
     -46.00     1.267
     -45.00     1.232
     -44.00     1.204
     -43.00     1.185
     -42.00     1.173
     -41.00     1.169
     -40.00     1.173
     -39.00     1.187
     -38.00     1.210
     -37.00     1.244
     -36.00     1.289
     -35.00     1.348
     -34.00     1.429
     -33.00     1.552
     -32.00     1.772
     -31.00     2.135
     -30.00     2.498
     -29.00     2.617
     -28.00     2.558
     -27.00     2.568
     -26.00     2.720
     -25.00     2.990
     -24.00     3.421
     -23.00     4.377
     -22.00     6.761
     -21.00    10.676
     -20.00    13.396
     -19.00    12.686
     -18.00    10.904
     -17.00    10.919
     -16.00    13.108
     -15.00    17.484
     -14.00    23.491
     -13.00    27.825
     -12.00    27.395
     -11.00    24.132
     -10.00    21.638
      -9.00    20.533
      -8.00    19.916
      -7.00    19.425
      -6.00    19.212
      -5.00    19.414
      -4.00    19.842
      -3.00    19.966
      -2.00    19.293
      -1.00    18.028
       0.00    17.328
       1.00    17.545
       2.00    16.318
       3.00    12.405
       4.00     8.484
       5.00     6.405
       6.00     5.529
       7.00     4.995
       8.00     4.474
       9.00     3.901
      10.00     3.300
      11.00     2.722
      12.00     2.205
      13.00     1.763
      14.00     1.398
      15.00     1.101
      16.00     0.865
      17.00     0.678
      18.00     0.532
      19.00     0.418
      20.00     0.329
      21.00     0.260
      22.00     0.206
      23.00     0.162
      24.00     0.128
      25.00     0.101
      26.00     0.080
      27.00     0.063
      28.00     0.049
      29.00     0.038
      30.00     0.030
      31.00     0.023
      32.00     0.018
      33.00     0.014
      34.00     0.011
      35.00     0.009
      36.00     0.007
      37.00     0.005
      38.00     0.004
      39.00     0.003
      40.00     0.002
      41.00     0.002
      42.00     0.002
      43.00     0.001
      44.00     0.001
      45.00     0.001
      46.00     0.001
      47.00     0.000
      48.00     0.000
      49.00     0.000
      50.00     0.000
      51.00     0.000
      52.00     0.000
      53.00     0.000
      54.00     0.000
      55.00     0.000
      56.00     0.000
      57.00     0.000
      58.00     0.000
      59.00     0.000
      60.00     0.000
      61.00     0.000
      62.00     0.000
      63.00     0.000
      64.00     0.000
      65.00     0.000
      66.00     0.000
      67.00     0.000
      68.00     0.000
      69.00     0.000
      70.00     0.000
      71.00     0.000
      72.00     0.000
      73.00     0.000
      74.00     0.000
      75.00     0.000
      76.00     0.000
      77.00     0.000
      78.00     0.000
      79.00     0.000
      80.00     0.000
      81.00     0.000
      82.00     0.000
      83.00     0.000
      84.00     0.000
      85.00     0.000
      86.00     0.000
      87.00     0.000
      88.00     0.000
      89.00     0.000
      90.00     0.000
      91.00     0.000
      92.00     0.000
      93.00     0.000
      94.00     0.000
      95.00     0.000
      96.00     0.000
      97.00     0.000
      98.00     0.000
      99.00     0.000
     100.00     0.000
%% HI4PI Gaussians - height, velocity, width (sigma) 
%     15.382    -9.937     4.942
%      5.099   -10.952    12.680
%      1.776   -61.479    16.438
%     10.201    -2.090     2.559
%      3.542   -68.665     6.797
%      3.184     5.718     4.604
%     10.315   -12.818     1.392
%      0.945  -128.854    14.480
%      7.622   -20.003     1.300
%      7.163     1.805     1.365
%      0.659  -129.459     5.466
%      0.811   -29.718     1.199
%      0.665   -61.977     0.912
%% Gaussians are derived from EBHIS                  
