%%    122.500    29.000    0     0.125  -100.000   100.000
% HI4PI gauss data -------------
%   l, b, RA, DEC, beam interpolated N_HI, N_H2_dark, N_H2_tot  
% 122.500 ;  29.000 ; 204.268 ;  88.090 ;  0.644E+21 ;  0.233E+21 ;  0.535E+21
% nearest HEALPix pixel: l, b, RA, DEC, N_HI, N_H2_dark, N_H2_tot
% 122.520 ;  29.014 ; 203.686 ;  88.079 ;  0.639E+21 ;  0.210E+21 ;  0.518E+21
% GASS III survey --------------
% NH - median within 6 arcmin radius   0.00    
% NH - mean within specified beam      0.00    
% EBHIS survey -----------------
% NH  within specified beam           0.644E+21
%%EBHIS   160  datapoints: v_lsr [km/s] and T_B [K]
     -99.09     0.107
     -97.80     0.078
     -96.52     0.127
     -95.23     0.113
     -93.94     0.316
     -92.65     0.194
     -91.36     0.148
     -90.08     0.558
     -88.79     1.019
     -87.50     1.667
     -86.21     2.451
     -84.92     3.158
     -83.63     3.184
     -82.35     2.575
     -81.06     1.846
     -79.77     1.277
     -78.48     0.894
     -77.19     0.565
     -75.90     0.410
     -74.62     0.359
     -73.33     0.337
     -72.04     0.300
     -70.75     0.177
     -69.46     0.177
     -68.18     0.141
     -66.89     0.071
     -65.60     0.142
     -64.31     0.105
     -63.02     0.081
     -61.73     0.088
     -60.45     0.174
     -59.16     0.090
     -57.87     0.097
     -56.58     0.077
     -55.29     0.152
     -54.00     0.180
     -52.72     0.325
     -51.43     0.338
     -50.14     0.266
     -48.85     0.365
     -47.56     0.591
     -46.28     0.607
     -44.99     0.534
     -43.70     0.680
     -42.41     0.814
     -41.12     0.976
     -39.83     1.005
     -38.55     1.088
     -37.26     1.208
     -35.97     1.342
     -34.68     1.557
     -33.39     1.646
     -32.10     1.906
     -30.82     2.308
     -29.53     2.855
     -28.24     3.803
     -26.95     5.378
     -25.66     7.793
     -24.38     9.709
     -23.09    10.455
     -21.80    10.473
     -20.51     8.414
     -19.22     6.269
     -17.93     5.173
     -16.65     4.948
     -15.36     4.936
     -14.07     4.935
     -12.78     4.918
     -11.49     5.110
     -10.20     6.029
      -8.92    10.436
      -7.63    17.112
      -6.34    18.389
      -5.05    16.724
      -3.76    15.996
      -2.48    14.067
      -1.19     9.768
       0.10     6.077
       1.39     4.157
       2.68     3.404
       3.97     2.989
       5.25     2.439
       6.54     2.103
       7.83     1.736
       9.12     1.461
      10.41     1.080
      11.70     0.936
      12.98     0.735
      14.27     0.613
      15.56     0.489
      16.85     0.327
      18.14     0.308
      19.42     0.266
      20.71     0.026
      22.00    -0.031
      23.29     0.099
      24.58     0.103
      25.87     0.030
      27.15     0.104
      28.44     0.064
      29.73     0.063
      31.02    -0.093
      32.31     0.015
      33.60    -0.055
      34.88    -0.067
      36.17    -0.053
      37.46     0.058
      38.75     0.093
      40.04    -0.025
      41.32    -0.089
      42.61    -0.047
      43.90    -0.082
      45.19    -0.091
      46.48     0.047
      47.77     0.010
      49.05    -0.021
      50.34    -0.128
      51.63    -0.062
      52.92     0.064
      54.21     0.031
      55.50     0.093
      56.78     0.058
      58.07     0.090
      59.36    -0.079
      60.65     0.051
      61.94     0.052
      63.22     0.018
      64.51     0.062
      65.80     0.054
      67.09     0.121
      68.38     0.145
      69.67     0.108
      70.95    -0.006
      72.24    -0.079
      73.53    -0.005
      74.82     0.128
      76.11     0.114
      77.40     0.032
      78.68    -0.026
      79.97    -0.012
      81.26     0.007
      82.55    -0.086
      83.84     0.001
      85.12    -0.006
      86.41    -0.031
      87.70    -0.021
      88.99    -0.133
      90.28    -0.025
      91.57     0.130
      92.85     0.034
      94.14    -0.078
      95.43     0.001
      96.72    -0.013
      98.01    -0.078
      99.30    -0.006
%%GASS      0  datapoints: v_lsr [km/s] and T_B [K]
%%gauss   201  datapoints: v_lsr [km/s] and T_B [K]
    -100.00     0.035
     -99.00     0.046
     -98.00     0.060
     -97.00     0.077
     -96.00     0.098
     -95.00     0.123
     -94.00     0.155
     -93.00     0.197
     -92.00     0.262
     -91.00     0.372
     -90.00     0.566
     -89.00     0.891
     -88.00     1.377
     -87.00     1.993
     -86.00     2.619
     -85.00     3.075
     -84.00     3.204
     -83.00     2.963
     -82.00     2.453
     -81.00     1.852
     -80.00     1.319
     -79.00     0.933
     -78.00     0.692
     -77.00     0.552
     -76.00     0.468
     -75.00     0.410
     -74.00     0.361
     -73.00     0.316
     -72.00     0.274
     -71.00     0.234
     -70.00     0.198
     -69.00     0.167
     -68.00     0.140
     -67.00     0.118
     -66.00     0.101
     -65.00     0.088
     -64.00     0.080
     -63.00     0.076
     -62.00     0.076
     -61.00     0.079
     -60.00     0.085
     -59.00     0.095
     -58.00     0.108
     -57.00     0.124
     -56.00     0.143
     -55.00     0.165
     -54.00     0.191
     -53.00     0.221
     -52.00     0.254
     -51.00     0.291
     -50.00     0.333
     -49.00     0.379
     -48.00     0.430
     -47.00     0.485
     -46.00     0.545
     -45.00     0.611
     -44.00     0.681
     -43.00     0.756
     -42.00     0.836
     -41.00     0.921
     -40.00     1.011
     -39.00     1.105
     -38.00     1.203
     -37.00     1.306
     -36.00     1.413
     -35.00     1.525
     -34.00     1.643
     -33.00     1.773
     -32.00     1.931
     -31.00     2.151
     -30.00     2.503
     -29.00     3.092
     -28.00     4.045
     -27.00     5.428
     -26.00     7.132
     -25.00     8.826
     -24.00    10.078
     -23.00    10.613
     -22.00    10.451
     -21.00     9.272
     -20.00     7.512
     -19.00     6.106
     -18.00     5.265
     -17.00     4.902
     -16.00     4.842
     -15.00     4.900
     -14.00     4.950
     -13.00     4.966
     -12.00     5.004
     -11.00     5.265
     -10.00     6.500
      -9.00    10.030
      -8.00    15.376
      -7.00    18.631
      -6.00    17.955
      -5.00    16.552
      -4.00    16.216
      -3.00    15.234
      -2.00    12.541
      -1.00     9.125
       0.00     6.332
       1.00     4.623
       2.00     3.722
       3.00     3.220
       4.00     2.862
       5.00     2.550
       6.00     2.256
       7.00     1.978
       8.00     1.717
       9.00     1.477
      10.00     1.259
      11.00     1.064
      12.00     0.892
      13.00     0.742
      14.00     0.612
      15.00     0.502
      16.00     0.409
      17.00     0.332
      18.00     0.268
      19.00     0.215
      20.00     0.173
      21.00     0.138
      22.00     0.110
      23.00     0.087
      24.00     0.070
      25.00     0.055
      26.00     0.044
      27.00     0.035
      28.00     0.028
      29.00     0.022
      30.00     0.017
      31.00     0.014
      32.00     0.011
      33.00     0.009
      34.00     0.007
      35.00     0.005
      36.00     0.004
      37.00     0.003
      38.00     0.003
      39.00     0.002
      40.00     0.002
      41.00     0.001
      42.00     0.001
      43.00     0.001
      44.00     0.001
      45.00     0.000
      46.00     0.000
      47.00     0.000
      48.00     0.000
      49.00     0.000
      50.00     0.000
      51.00     0.000
      52.00     0.000
      53.00     0.000
      54.00     0.000
      55.00     0.000
      56.00     0.000
      57.00     0.000
      58.00     0.000
      59.00     0.000
      60.00     0.000
      61.00     0.000
      62.00     0.000
      63.00     0.000
      64.00     0.000
      65.00     0.000
      66.00     0.000
      67.00     0.000
      68.00     0.000
      69.00     0.000
      70.00     0.000
      71.00     0.000
      72.00     0.000
      73.00     0.000
      74.00     0.000
      75.00     0.000
      76.00     0.000
      77.00     0.000
      78.00     0.000
      79.00     0.000
      80.00     0.000
      81.00     0.000
      82.00     0.000
      83.00     0.000
      84.00     0.000
      85.00     0.000
      86.00     0.000
      87.00     0.000
      88.00     0.000
      89.00     0.000
      90.00     0.000
      91.00     0.000
      92.00     0.000
      93.00     0.000
      94.00     0.000
      95.00     0.000
      96.00     0.000
      97.00     0.000
      98.00     0.000
      99.00     0.000
     100.00     0.000
%% HI4PI Gaussians - height, velocity, width (sigma) 
%      2.591   -19.084    15.440
%      3.388    -4.449     8.394
%      7.884   -23.059     2.856
%     10.533    -3.635     2.119
%     10.024    -7.190     1.342
%      2.842   -84.229     2.583
%      0.599   -81.077     6.975
%      0.886   -14.849     1.796
%% Gaussians are derived from EBHIS                  
