%%    121.070    21.750    0     0.125  -100.000   100.000
% HI4PI gauss data -------------
%   l, b, RA, DEC, beam interpolated N_HI, N_H2_dark, N_H2_tot  
% 121.070 ;  21.750 ; 354.973 ;  84.361 ;  0.619E+21 ;  0.189E+21 ;  0.384E+22
% nearest HEALPix pixel: l, b, RA, DEC, N_HI, N_H2_dark, N_H2_tot
% 121.069 ;  21.783 ; 354.867 ;  84.393 ;  0.631E+21 ;  0.162E+21 ;  0.387E+22
% GASS III survey --------------
% NH - median within 6 arcmin radius   0.00    
% NH - mean within specified beam      0.00    
% EBHIS survey -----------------
% NH  within specified beam           0.619E+21
%%EBHIS   160  datapoints: v_lsr [km/s] and T_B [K]
     -99.09     0.621
     -97.80     0.490
     -96.52     0.512
     -95.23     0.496
     -93.94     0.578
     -92.65     0.627
     -91.36     0.697
     -90.08     0.728
     -88.79     0.661
     -87.50     0.777
     -86.21     0.686
     -84.92     0.684
     -83.63     0.853
     -82.35     1.063
     -81.06     0.836
     -79.77     0.936
     -78.48     0.992
     -77.19     1.166
     -75.90     1.024
     -74.62     1.072
     -73.33     0.958
     -72.04     0.824
     -70.75     0.817
     -69.46     0.769
     -68.18     0.753
     -66.89     0.849
     -65.60     0.809
     -64.31     0.822
     -63.02     0.811
     -61.73     0.833
     -60.45     0.826
     -59.16     0.699
     -57.87     0.713
     -56.58     0.627
     -55.29     0.661
     -54.00     0.492
     -52.72     0.391
     -51.43     0.378
     -50.14     0.454
     -48.85     0.377
     -47.56     0.319
     -46.28     0.401
     -44.99     0.398
     -43.70     0.404
     -42.41     0.484
     -41.12     0.484
     -39.83     0.598
     -38.55     0.588
     -37.26     0.633
     -35.97     0.674
     -34.68     0.885
     -33.39     0.815
     -32.10     1.051
     -30.82     1.125
     -29.53     1.226
     -28.24     1.195
     -26.95     1.451
     -25.66     1.681
     -24.38     2.069
     -23.09     2.460
     -21.80     2.798
     -20.51     3.293
     -19.22     3.732
     -17.93     4.178
     -16.65     4.715
     -15.36     5.357
     -14.07     6.397
     -12.78     7.848
     -11.49     9.495
     -10.20    10.613
      -8.92    11.035
      -7.63    11.924
      -6.34    14.573
      -5.05    15.368
      -3.76    16.183
      -2.48    18.633
      -1.19    16.783
       0.10    12.595
       1.39     7.760
       2.68     5.275
       3.97     4.273
       5.25     3.738
       6.54     3.353
       7.83     3.072
       9.12     2.715
      10.41     2.346
      11.70     1.644
      12.98     1.276
      14.27     1.097
      15.56     0.770
      16.85     0.641
      18.14     0.499
      19.42     0.402
      20.71     0.382
      22.00     0.238
      23.29     0.200
      24.58     0.134
      25.87     0.137
      27.15     0.100
      28.44     0.072
      29.73    -0.009
      31.02    -0.092
      32.31     0.091
      33.60     0.039
      34.88    -0.002
      36.17    -0.076
      37.46    -0.126
      38.75    -0.145
      40.04    -0.089
      41.32     0.151
      42.61    -0.052
      43.90    -0.064
      45.19     0.041
      46.48     0.200
      47.77     0.087
      49.05     0.113
      50.34    -0.040
      51.63     0.007
      52.92    -0.069
      54.21     0.010
      55.50    -0.017
      56.78     0.062
      58.07    -0.003
      59.36    -0.053
      60.65    -0.017
      61.94    -0.084
      63.22    -0.018
      64.51    -0.111
      65.80     0.043
      67.09     0.028
      68.38     0.017
      69.67     0.057
      70.95     0.078
      72.24     0.027
      73.53    -0.076
      74.82    -0.019
      76.11    -0.053
      77.40    -0.049
      78.68     0.021
      79.97     0.069
      81.26    -0.002
      82.55    -0.034
      83.84     0.055
      85.12     0.139
      86.41     0.010
      87.70     0.017
      88.99    -0.053
      90.28    -0.148
      91.57     0.064
      92.85    -0.082
      94.14    -0.018
      95.43     0.089
      96.72    -0.055
      98.01     0.034
      99.30    -0.072
%%GASS      0  datapoints: v_lsr [km/s] and T_B [K]
%%gauss   201  datapoints: v_lsr [km/s] and T_B [K]
    -100.00     0.551
     -99.00     0.558
     -98.00     0.567
     -97.00     0.576
     -96.00     0.586
     -95.00     0.596
     -94.00     0.607
     -93.00     0.619
     -92.00     0.631
     -91.00     0.646
     -90.00     0.662
     -89.00     0.680
     -88.00     0.701
     -87.00     0.725
     -86.00     0.753
     -85.00     0.783
     -84.00     0.816
     -83.00     0.850
     -82.00     0.885
     -81.00     0.921
     -80.00     0.958
     -79.00     0.999
     -78.00     1.038
     -77.00     1.064
     -76.00     1.064
     -75.00     1.033
     -74.00     0.980
     -73.00     0.921
     -72.00     0.871
     -71.00     0.836
     -70.00     0.815
     -69.00     0.805
     -68.00     0.801
     -67.00     0.800
     -66.00     0.799
     -65.00     0.795
     -64.00     0.788
     -63.00     0.776
     -62.00     0.759
     -61.00     0.736
     -60.00     0.709
     -59.00     0.678
     -58.00     0.646
     -57.00     0.613
     -56.00     0.580
     -55.00     0.549
     -54.00     0.519
     -53.00     0.493
     -52.00     0.469
     -51.00     0.449
     -50.00     0.431
     -49.00     0.417
     -48.00     0.406
     -47.00     0.400
     -46.00     0.398
     -45.00     0.401
     -44.00     0.411
     -43.00     0.427
     -42.00     0.449
     -41.00     0.479
     -40.00     0.516
     -39.00     0.559
     -38.00     0.606
     -37.00     0.658
     -36.00     0.711
     -35.00     0.765
     -34.00     0.820
     -33.00     0.876
     -32.00     0.937
     -31.00     1.008
     -30.00     1.094
     -29.00     1.200
     -28.00     1.332
     -27.00     1.492
     -26.00     1.682
     -25.00     1.903
     -24.00     2.154
     -23.00     2.433
     -22.00     2.738
     -21.00     3.066
     -20.00     3.414
     -19.00     3.777
     -18.00     4.159
     -17.00     4.569
     -16.00     5.043
     -15.00     5.646
     -14.00     6.469
     -13.00     7.560
     -12.00     8.833
     -11.00    10.016
     -10.00    10.766
      -9.00    11.006
      -8.00    11.437
      -7.00    13.163
      -6.00    15.089
      -5.00    15.313
      -4.00    15.853
      -3.00    17.851
      -2.00    18.441
      -1.00    16.384
       0.00    12.868
       1.00     9.050
       2.00     6.313
       3.00     4.954
       4.00     4.275
       5.00     3.840
       6.00     3.503
       7.00     3.232
       8.00     2.996
       9.00     2.732
      10.00     2.386
      11.00     1.987
      12.00     1.626
      13.00     1.345
      14.00     1.124
      15.00     0.939
      16.00     0.780
      17.00     0.644
      18.00     0.528
      19.00     0.429
      20.00     0.346
      21.00     0.278
      22.00     0.221
      23.00     0.175
      24.00     0.137
      25.00     0.107
      26.00     0.083
      27.00     0.064
      28.00     0.049
      29.00     0.038
      30.00     0.029
      31.00     0.022
      32.00     0.017
      33.00     0.013
      34.00     0.010
      35.00     0.007
      36.00     0.006
      37.00     0.005
      38.00     0.004
      39.00     0.003
      40.00     0.002
      41.00     0.002
      42.00     0.002
      43.00     0.001
      44.00     0.001
      45.00     0.001
      46.00     0.001
      47.00     0.001
      48.00     0.001
      49.00     0.001
      50.00     0.001
      51.00     0.001
      52.00     0.000
      53.00     0.000
      54.00     0.000
      55.00     0.000
      56.00     0.000
      57.00     0.000
      58.00     0.000
      59.00     0.000
      60.00     0.000
      61.00     0.000
      62.00     0.000
      63.00     0.000
      64.00     0.000
      65.00     0.000
      66.00     0.000
      67.00     0.000
      68.00     0.000
      69.00     0.000
      70.00     0.000
      71.00     0.000
      72.00     0.000
      73.00     0.000
      74.00     0.000
      75.00     0.000
      76.00     0.000
      77.00     0.000
      78.00     0.000
      79.00     0.000
      80.00     0.000
      81.00     0.000
      82.00     0.000
      83.00     0.000
      84.00     0.000
      85.00     0.000
      86.00     0.000
      87.00     0.000
      88.00     0.000
      89.00     0.000
      90.00     0.000
      91.00     0.000
      92.00     0.000
      93.00     0.000
      94.00     0.000
      95.00     0.000
      96.00     0.000
      97.00     0.000
      98.00     0.000
      99.00     0.000
     100.00     0.000
%% HI4PI Gaussians - height, velocity, width (sigma) 
%      6.570    -7.009    11.048
%     12.885    -2.084     1.963
%      0.607   -87.070    34.510
%      1.812  -125.246     7.234
%      4.575    -9.056     2.862
%      4.514    -5.948     1.084
%      0.650   -78.810     4.914
%      0.466   -63.209     5.622
%      0.363   -35.656     5.476
%      0.565     9.411     1.413
%% Gaussians are derived from EBHIS                  
