%%    146.070    17.750    0     0.125  -100.000   100.000
% HI4PI gauss data -------------
%   l, b, RA, DEC, beam interpolated N_HI, N_H2_dark, N_H2_tot  
% 146.070 ;  17.750 ;  83.975 ;  66.701 ;  0.814E+21 ;  0.281E+21 ;  0.150E+22
% nearest HEALPix pixel: l, b, RA, DEC, N_HI, N_H2_dark, N_H2_tot
% 146.074 ;  17.779 ;  84.043 ;  66.711 ;  0.814E+21 ;  0.204E+21 ;  0.142E+22
% GASS III survey --------------
% NH - median within 6 arcmin radius   0.00    
% NH - mean within specified beam      0.00    
% EBHIS survey -----------------
% NH  within specified beam           0.811E+21
%%EBHIS   160  datapoints: v_lsr [km/s] and T_B [K]
     -99.09     1.166
     -97.80     1.160
     -96.52     1.165
     -95.23     1.168
     -93.94     1.142
     -92.65     1.153
     -91.36     1.336
     -90.08     1.224
     -88.79     1.292
     -87.50     1.215
     -86.21     1.172
     -84.92     1.206
     -83.63     1.311
     -82.35     1.236
     -81.06     1.113
     -79.77     1.007
     -78.48     0.945
     -77.19     0.870
     -75.90     0.816
     -74.62     0.880
     -73.33     0.815
     -72.04     0.713
     -70.75     0.551
     -69.46     0.545
     -68.18     0.447
     -66.89     0.376
     -65.60     0.403
     -64.31     0.495
     -63.02     0.512
     -61.73     0.469
     -60.45     0.421
     -59.16     0.486
     -57.87     0.460
     -56.58     0.481
     -55.29     0.508
     -54.00     0.557
     -52.72     0.558
     -51.43     0.466
     -50.14     0.551
     -48.85     0.620
     -47.56     0.789
     -46.28     0.733
     -44.99     0.687
     -43.70     0.852
     -42.41     0.862
     -41.12     0.790
     -39.83     0.803
     -38.55     0.872
     -37.26     1.012
     -35.97     1.169
     -34.68     1.120
     -33.39     1.128
     -32.10     1.256
     -30.82     1.251
     -29.53     1.592
     -28.24     1.694
     -26.95     1.598
     -25.66     1.551
     -24.38     1.587
     -23.09     1.548
     -21.80     1.626
     -20.51     1.713
     -19.22     1.694
     -17.93     2.064
     -16.65     2.390
     -15.36     2.840
     -14.07     3.189
     -12.78     3.916
     -11.49     4.648
     -10.20     5.691
      -8.92     7.369
      -7.63     9.994
      -6.34    13.095
      -5.05    15.511
      -3.76    18.341
      -2.48    22.941
      -1.19    29.957
       0.10    35.080
       1.39    35.152
       2.68    25.783
       3.97    15.312
       5.25     8.498
       6.54     5.454
       7.83     3.938
       9.12     3.001
      10.41     2.457
      11.70     1.928
      12.98     1.495
      14.27     1.305
      15.56     1.052
      16.85     0.696
      18.14     0.622
      19.42     0.453
      20.71     0.319
      22.00     0.140
      23.29     0.119
      24.58     0.166
      25.87     0.065
      27.15     0.137
      28.44     0.073
      29.73     0.060
      31.02    -0.036
      32.31    -0.053
      33.60     0.027
      34.88    -0.123
      36.17    -0.174
      37.46     0.104
      38.75     0.044
      40.04    -0.056
      41.32    -0.116
      42.61     0.046
      43.90     0.048
      45.19    -0.062
      46.48     0.002
      47.77     0.004
      49.05    -0.053
      50.34    -0.088
      51.63    -0.017
      52.92    -0.105
      54.21    -0.122
      55.50    -0.045
      56.78    -0.073
      58.07     0.053
      59.36     0.024
      60.65    -0.034
      61.94    -0.102
      63.22    -0.013
      64.51     0.009
      65.80    -0.070
      67.09     0.062
      68.38     0.036
      69.67     0.029
      70.95    -0.012
      72.24     0.052
      73.53     0.106
      74.82     0.022
      76.11     0.053
      77.40     0.029
      78.68    -0.035
      79.97    -0.034
      81.26     0.002
      82.55    -0.019
      83.84    -0.074
      85.12    -0.023
      86.41    -0.020
      87.70     0.021
      88.99    -0.044
      90.28     0.049
      91.57    -0.040
      92.85    -0.090
      94.14    -0.008
      95.43     0.047
      96.72    -0.024
      98.01    -0.020
      99.30     0.042
%%GASS      0  datapoints: v_lsr [km/s] and T_B [K]
%%gauss   201  datapoints: v_lsr [km/s] and T_B [K]
    -100.00     0.996
     -99.00     1.042
     -98.00     1.086
     -97.00     1.127
     -96.00     1.163
     -95.00     1.195
     -94.00     1.223
     -93.00     1.245
     -92.00     1.262
     -91.00     1.272
     -90.00     1.278
     -89.00     1.277
     -88.00     1.270
     -87.00     1.258
     -86.00     1.240
     -85.00     1.217
     -84.00     1.190
     -83.00     1.158
     -82.00     1.122
     -81.00     1.082
     -80.00     1.040
     -79.00     0.996
     -78.00     0.950
     -77.00     0.903
     -76.00     0.856
     -75.00     0.809
     -74.00     0.763
     -73.00     0.718
     -72.00     0.675
     -71.00     0.635
     -70.00     0.597
     -69.00     0.562
     -68.00     0.531
     -67.00     0.504
     -66.00     0.481
     -65.00     0.462
     -64.00     0.447
     -63.00     0.436
     -62.00     0.429
     -61.00     0.427
     -60.00     0.429
     -59.00     0.435
     -58.00     0.444
     -57.00     0.457
     -56.00     0.473
     -55.00     0.492
     -54.00     0.513
     -53.00     0.537
     -52.00     0.562
     -51.00     0.588
     -50.00     0.616
     -49.00     0.644
     -48.00     0.672
     -47.00     0.699
     -46.00     0.727
     -45.00     0.754
     -44.00     0.781
     -43.00     0.807
     -42.00     0.834
     -41.00     0.861
     -40.00     0.889
     -39.00     0.919
     -38.00     0.951
     -37.00     0.987
     -36.00     1.026
     -35.00     1.071
     -34.00     1.123
     -33.00     1.184
     -32.00     1.259
     -31.00     1.353
     -30.00     1.460
     -29.00     1.561
     -28.00     1.622
     -27.00     1.630
     -26.00     1.601
     -25.00     1.564
     -24.00     1.542
     -23.00     1.544
     -22.00     1.575
     -21.00     1.640
     -20.00     1.743
     -19.00     1.889
     -18.00     2.078
     -17.00     2.313
     -16.00     2.593
     -15.00     2.920
     -14.00     3.297
     -13.00     3.732
     -12.00     4.258
     -11.00     4.944
     -10.00     5.914
      -9.00     7.314
      -8.00     9.206
      -7.00    11.449
      -6.00    13.700
      -5.00    15.714
      -4.00    17.768
      -3.00    20.722
      -2.00    25.347
      -1.00    30.804
       0.00    35.023
       1.00    36.046
       2.00    31.461
       3.00    22.959
       4.00    15.092
       5.00     9.575
       6.00     6.372
       7.00     4.690
       8.00     3.769
       9.00     3.162
      10.00     2.680
      11.00     2.263
      12.00     1.894
      13.00     1.569
      14.00     1.287
      15.00     1.046
      16.00     0.844
      17.00     0.675
      18.00     0.537
      19.00     0.425
      20.00     0.335
      21.00     0.264
      22.00     0.209
      23.00     0.166
      24.00     0.132
      25.00     0.106
      26.00     0.086
      27.00     0.071
      28.00     0.059
      29.00     0.049
      30.00     0.042
      31.00     0.036
      32.00     0.031
      33.00     0.027
      34.00     0.023
      35.00     0.020
      36.00     0.018
      37.00     0.015
      38.00     0.014
      39.00     0.012
      40.00     0.010
      41.00     0.009
      42.00     0.008
      43.00     0.007
      44.00     0.006
      45.00     0.005
      46.00     0.005
      47.00     0.004
      48.00     0.003
      49.00     0.003
      50.00     0.003
      51.00     0.002
      52.00     0.002
      53.00     0.002
      54.00     0.001
      55.00     0.001
      56.00     0.001
      57.00     0.001
      58.00     0.001
      59.00     0.001
      60.00     0.001
      61.00     0.000
      62.00     0.000
      63.00     0.000
      64.00     0.000
      65.00     0.000
      66.00     0.000
      67.00     0.000
      68.00     0.000
      69.00     0.000
      70.00     0.000
      71.00     0.000
      72.00     0.000
      73.00     0.000
      74.00     0.000
      75.00     0.000
      76.00     0.000
      77.00     0.000
      78.00     0.000
      79.00     0.000
      80.00     0.000
      81.00     0.000
      82.00     0.000
      83.00     0.000
      84.00     0.000
      85.00     0.000
      86.00     0.000
      87.00     0.000
      88.00     0.000
      89.00     0.000
      90.00     0.000
      91.00     0.000
      92.00     0.000
      93.00     0.000
      94.00     0.000
      95.00     0.000
      96.00     0.000
      97.00     0.000
      98.00     0.000
      99.00     0.000
     100.00     0.000
%% HI4PI Gaussians - height, velocity, width (sigma) 
%      6.918    -1.769     8.181
%     26.796     0.899     2.112
%      8.773    -3.852     2.910
%      1.157   -24.968    20.545
%      1.251   -89.919    14.647
%      0.514   -27.313     3.156
%% Gaussians are derived from EBHIS                  
