%%    148.210    23.500    0     0.125  -100.000   100.000
% HI4PI gauss data -------------
%   l, b, RA, DEC, beam interpolated N_HI, N_H2_dark, N_H2_tot  
% 148.210 ;  23.500 ;  99.463 ;  66.903 ;  0.601E+21 ;  0.206E+21 ;  0.436E+21
% nearest HEALPix pixel: l, b, RA, DEC, N_HI, N_H2_dark, N_H2_tot
% 148.228 ;  23.481 ;  99.425 ;  66.883 ;  0.597E+21 ;  0.188E+21 ;  0.417E+21
% GASS III survey --------------
% NH - median within 6 arcmin radius   0.00    
% NH - mean within specified beam      0.00    
% EBHIS survey -----------------
% NH  within specified beam           0.601E+21
%%EBHIS   160  datapoints: v_lsr [km/s] and T_B [K]
     -99.09     0.098
     -97.80     0.226
     -96.52     0.390
     -95.23     0.335
     -93.94     0.193
     -92.65     0.280
     -91.36     0.152
     -90.08     0.163
     -88.79     0.193
     -87.50     0.269
     -86.21     0.310
     -84.92     0.192
     -83.63     0.257
     -82.35     0.201
     -81.06     0.360
     -79.77     0.257
     -78.48     0.207
     -77.19     0.307
     -75.90     0.374
     -74.62     0.361
     -73.33     0.316
     -72.04     0.184
     -70.75     0.293
     -69.46     0.222
     -68.18     0.413
     -66.89     0.485
     -65.60     0.357
     -64.31     0.491
     -63.02     0.655
     -61.73     0.665
     -60.45     0.731
     -59.16     0.597
     -57.87     0.830
     -56.58     0.975
     -55.29     0.864
     -54.00     0.815
     -52.72     0.937
     -51.43     0.876
     -50.14     0.897
     -48.85     0.874
     -47.56     0.889
     -46.28     0.864
     -44.99     0.795
     -43.70     0.673
     -42.41     0.768
     -41.12     0.696
     -39.83     0.596
     -38.55     0.588
     -37.26     0.452
     -35.97     0.357
     -34.68     0.505
     -33.39     0.563
     -32.10     0.529
     -30.82     0.626
     -29.53     0.568
     -28.24     0.726
     -26.95     0.723
     -25.66     0.982
     -24.38     1.060
     -23.09     1.194
     -21.80     1.566
     -20.51     1.870
     -19.22     2.252
     -17.93     2.618
     -16.65     3.002
     -15.36     3.560
     -14.07     4.236
     -12.78     5.013
     -11.49     5.808
     -10.20     6.675
      -8.92     7.705
      -7.63     8.790
      -6.34     9.824
      -5.05    11.190
      -3.76    13.034
      -2.48    12.454
      -1.19    11.626
       0.10    15.558
       1.39    21.614
       2.68    18.841
       3.97    12.907
       5.25     9.627
       6.54     8.480
       7.83     6.761
       9.12     4.891
      10.41     3.277
      11.70     2.098
      12.98     1.842
      14.27     1.574
      15.56     1.180
      16.85     1.016
      18.14     0.876
      19.42     0.603
      20.71     0.516
      22.00     0.384
      23.29     0.241
      24.58     0.235
      25.87     0.251
      27.15     0.012
      28.44     0.093
      29.73     0.079
      31.02     0.047
      32.31     0.024
      33.60     0.013
      34.88     0.036
      36.17    -0.045
      37.46    -0.048
      38.75    -0.058
      40.04     0.031
      41.32     0.060
      42.61     0.049
      43.90    -0.008
      45.19    -0.027
      46.48    -0.060
      47.77     0.016
      49.05    -0.071
      50.34     0.041
      51.63     0.058
      52.92    -0.001
      54.21    -0.020
      55.50    -0.086
      56.78     0.041
      58.07     0.068
      59.36     0.040
      60.65     0.200
      61.94    -0.007
      63.22    -0.120
      64.51    -0.030
      65.80     0.016
      67.09     0.070
      68.38    -0.154
      69.67    -0.049
      70.95    -0.032
      72.24    -0.001
      73.53    -0.116
      74.82    -0.034
      76.11     0.031
      77.40    -0.080
      78.68     0.030
      79.97    -0.044
      81.26    -0.044
      82.55    -0.055
      83.84     0.012
      85.12     0.029
      86.41    -0.071
      87.70    -0.137
      88.99     0.067
      90.28     0.177
      91.57    -0.012
      92.85    -0.029
      94.14     0.056
      95.43     0.123
      96.72    -0.005
      98.01    -0.023
      99.30     0.030
%%GASS      0  datapoints: v_lsr [km/s] and T_B [K]
%%gauss   201  datapoints: v_lsr [km/s] and T_B [K]
    -100.00     0.143
     -99.00     0.155
     -98.00     0.167
     -97.00     0.179
     -96.00     0.190
     -95.00     0.201
     -94.00     0.212
     -93.00     0.222
     -92.00     0.230
     -91.00     0.238
     -90.00     0.245
     -89.00     0.251
     -88.00     0.255
     -87.00     0.258
     -86.00     0.260
     -85.00     0.262
     -84.00     0.262
     -83.00     0.261
     -82.00     0.261
     -81.00     0.260
     -80.00     0.259
     -79.00     0.259
     -78.00     0.260
     -77.00     0.262
     -76.00     0.265
     -75.00     0.271
     -74.00     0.279
     -73.00     0.289
     -72.00     0.302
     -71.00     0.319
     -70.00     0.339
     -69.00     0.362
     -68.00     0.389
     -67.00     0.420
     -66.00     0.453
     -65.00     0.490
     -64.00     0.530
     -63.00     0.571
     -62.00     0.614
     -61.00     0.657
     -60.00     0.700
     -59.00     0.742
     -58.00     0.781
     -57.00     0.818
     -56.00     0.849
     -55.00     0.876
     -54.00     0.896
     -53.00     0.910
     -52.00     0.918
     -51.00     0.918
     -50.00     0.912
     -49.00     0.899
     -48.00     0.880
     -47.00     0.855
     -46.00     0.826
     -45.00     0.794
     -44.00     0.758
     -43.00     0.721
     -42.00     0.683
     -41.00     0.645
     -40.00     0.609
     -39.00     0.575
     -38.00     0.544
     -37.00     0.518
     -36.00     0.498
     -35.00     0.485
     -34.00     0.480
     -33.00     0.485
     -32.00     0.500
     -31.00     0.527
     -30.00     0.567
     -29.00     0.623
     -28.00     0.695
     -27.00     0.784
     -26.00     0.892
     -25.00     1.020
     -24.00     1.169
     -23.00     1.340
     -22.00     1.534
     -21.00     1.752
     -20.00     1.996
     -19.00     2.268
     -18.00     2.571
     -17.00     2.910
     -16.00     3.294
     -15.00     3.729
     -14.00     4.227
     -13.00     4.794
     -12.00     5.436
     -11.00     6.150
     -10.00     6.921
      -9.00     7.716
      -8.00     8.485
      -7.00     9.213
      -6.00    10.053
      -5.00    11.329
      -4.00    12.784
      -3.00    13.015
      -2.00    11.855
      -1.00    11.813
       0.00    15.173
       1.00    20.243
       2.00    21.473
       3.00    17.362
       4.00    12.586
       5.00    10.066
       6.00     9.018
       7.00     7.943
       8.00     6.494
       9.00     4.969
      10.00     3.691
      11.00     2.786
      12.00     2.198
      13.00     1.811
      14.00     1.532
      15.00     1.307
      16.00     1.114
      17.00     0.946
      18.00     0.799
      19.00     0.671
      20.00     0.560
      21.00     0.465
      22.00     0.382
      23.00     0.311
      24.00     0.251
      25.00     0.200
      26.00     0.159
      27.00     0.125
      28.00     0.098
      29.00     0.076
      30.00     0.059
      31.00     0.046
      32.00     0.035
      33.00     0.027
      34.00     0.021
      35.00     0.016
      36.00     0.012
      37.00     0.009
      38.00     0.007
      39.00     0.006
      40.00     0.004
      41.00     0.003
      42.00     0.003
      43.00     0.002
      44.00     0.002
      45.00     0.001
      46.00     0.001
      47.00     0.001
      48.00     0.001
      49.00     0.001
      50.00     0.001
      51.00     0.001
      52.00     0.001
      53.00     0.001
      54.00     0.000
      55.00     0.000
      56.00     0.000
      57.00     0.000
      58.00     0.000
      59.00     0.000
      60.00     0.000
      61.00     0.000
      62.00     0.000
      63.00     0.000
      64.00     0.000
      65.00     0.000
      66.00     0.000
      67.00     0.000
      68.00     0.000
      69.00     0.000
      70.00     0.000
      71.00     0.000
      72.00     0.000
      73.00     0.000
      74.00     0.000
      75.00     0.000
      76.00     0.000
      77.00     0.000
      78.00     0.000
      79.00     0.000
      80.00     0.000
      81.00     0.000
      82.00     0.000
      83.00     0.000
      84.00     0.000
      85.00     0.000
      86.00     0.000
      87.00     0.000
      88.00     0.000
      89.00     0.000
      90.00     0.000
      91.00     0.000
      92.00     0.000
      93.00     0.000
      94.00     0.000
      95.00     0.000
      96.00     0.000
      97.00     0.000
      98.00     0.000
      99.00     0.000
     100.00     0.000
%% HI4PI Gaussians - height, velocity, width (sigma) 
%      5.442    -3.992    11.222
%      4.333    -4.399     4.704
%     13.413     1.766     1.418
%      4.932     5.799     2.439
%      0.882   -50.914    12.134
%      3.377    -3.373     1.423
%      0.288   -87.150    10.503
%% Gaussians are derived from EBHIS                  
