%%    151.500    19.250    0     0.125  -100.000   100.000
% HI4PI gauss data -------------
%   l, b, RA, DEC, beam interpolated N_HI, N_H2_dark, N_H2_tot  
% 151.500 ;  19.250 ;  92.239 ;  62.656 ;  0.888E+21 ;  0.283E+21 ;  0.382E+21
% nearest HEALPix pixel: l, b, RA, DEC, N_HI, N_H2_dark, N_H2_tot
% 151.479 ;  19.234 ;  92.191 ;  62.668 ;  0.879E+21 ;  0.280E+21 ;  0.378E+21
% GASS III survey --------------
% NH - median within 6 arcmin radius   0.00    
% NH - mean within specified beam      0.00    
% EBHIS survey -----------------
% NH  within specified beam           0.886E+21
%%EBHIS   160  datapoints: v_lsr [km/s] and T_B [K]
     -99.09     0.835
     -97.80     0.807
     -96.52     0.829
     -95.23     0.947
     -93.94     0.927
     -92.65     1.032
     -91.36     1.137
     -90.08     1.078
     -88.79     1.123
     -87.50     1.160
     -86.21     1.257
     -84.92     1.226
     -83.63     1.062
     -82.35     1.025
     -81.06     0.993
     -79.77     0.864
     -78.48     0.762
     -77.19     0.806
     -75.90     0.645
     -74.62     0.735
     -73.33     0.577
     -72.04     0.641
     -70.75     0.574
     -69.46     0.553
     -68.18     0.619
     -66.89     0.579
     -65.60     0.726
     -64.31     0.914
     -63.02     1.130
     -61.73     1.312
     -60.45     1.460
     -59.16     1.733
     -57.87     1.960
     -56.58     1.937
     -55.29     1.784
     -54.00     1.709
     -52.72     1.491
     -51.43     1.347
     -50.14     1.306
     -48.85     1.296
     -47.56     1.058
     -46.28     0.930
     -44.99     0.857
     -43.70     1.060
     -42.41     0.947
     -41.12     0.810
     -39.83     0.900
     -38.55     0.993
     -37.26     0.792
     -35.97     0.909
     -34.68     0.865
     -33.39     0.963
     -32.10     0.985
     -30.82     1.281
     -29.53     1.298
     -28.24     1.564
     -26.95     1.772
     -25.66     1.902
     -24.38     2.331
     -23.09     2.710
     -21.80     3.118
     -20.51     3.709
     -19.22     4.333
     -17.93     4.945
     -16.65     5.133
     -15.36     5.237
     -14.07     4.976
     -12.78     5.191
     -11.49     5.419
     -10.20     5.965
      -8.92     6.842
      -7.63     8.769
      -6.34    10.915
      -5.05    14.020
      -3.76    18.455
      -2.48    26.360
      -1.19    35.643
       0.10    33.139
       1.39    22.716
       2.68    16.491
       3.97    14.175
       5.25    11.523
       6.54    10.770
       7.83    10.001
       9.12     7.084
      10.41     4.260
      11.70     2.529
      12.98     1.872
      14.27     1.486
      15.56     1.235
      16.85     1.082
      18.14     0.686
      19.42     0.448
      20.71     0.398
      22.00     0.214
      23.29     0.274
      24.58     0.126
      25.87     0.188
      27.15     0.219
      28.44     0.007
      29.73     0.023
      31.02    -0.041
      32.31    -0.084
      33.60    -0.119
      34.88    -0.091
      36.17    -0.006
      37.46    -0.042
      38.75     0.042
      40.04     0.169
      41.32     0.036
      42.61     0.044
      43.90    -0.023
      45.19    -0.031
      46.48    -0.002
      47.77     0.068
      49.05    -0.055
      50.34    -0.090
      51.63     0.063
      52.92     0.013
      54.21     0.004
      55.50     0.023
      56.78     0.018
      58.07     0.006
      59.36    -0.016
      60.65     0.067
      61.94     0.027
      63.22    -0.070
      64.51    -0.031
      65.80    -0.057
      67.09     0.032
      68.38     0.064
      69.67    -0.152
      70.95    -0.060
      72.24     0.076
      73.53    -0.049
      74.82     0.083
      76.11     0.091
      77.40    -0.067
      78.68     0.009
      79.97    -0.024
      81.26    -0.059
      82.55    -0.040
      83.84    -0.056
      85.12    -0.051
      86.41     0.070
      87.70     0.001
      88.99    -0.029
      90.28     0.083
      91.57    -0.004
      92.85    -0.008
      94.14     0.059
      95.43    -0.005
      96.72    -0.064
      98.01    -0.073
      99.30    -0.015
%%GASS      0  datapoints: v_lsr [km/s] and T_B [K]
%%gauss   201  datapoints: v_lsr [km/s] and T_B [K]
    -100.00     0.675
     -99.00     0.734
     -98.00     0.792
     -97.00     0.848
     -96.00     0.902
     -95.00     0.953
     -94.00     0.999
     -93.00     1.041
     -92.00     1.076
     -91.00     1.104
     -90.00     1.126
     -89.00     1.139
     -88.00     1.145
     -87.00     1.143
     -86.00     1.132
     -85.00     1.115
     -84.00     1.090
     -83.00     1.059
     -82.00     1.022
     -81.00     0.980
     -80.00     0.935
     -79.00     0.887
     -78.00     0.837
     -77.00     0.787
     -76.00     0.737
     -75.00     0.690
     -74.00     0.646
     -73.00     0.608
     -72.00     0.576
     -71.00     0.554
     -70.00     0.545
     -69.00     0.551
     -68.00     0.578
     -67.00     0.628
     -66.00     0.706
     -65.00     0.812
     -64.00     0.946
     -63.00     1.104
     -62.00     1.277
     -61.00     1.453
     -60.00     1.616
     -59.00     1.750
     -58.00     1.844
     -57.00     1.887
     -56.00     1.877
     -55.00     1.819
     -54.00     1.723
     -53.00     1.603
     -52.00     1.474
     -51.00     1.350
     -50.00     1.240
     -49.00     1.149
     -48.00     1.079
     -47.00     1.029
     -46.00     0.993
     -45.00     0.968
     -44.00     0.950
     -43.00     0.934
     -42.00     0.919
     -41.00     0.904
     -40.00     0.891
     -39.00     0.879
     -38.00     0.873
     -37.00     0.874
     -36.00     0.884
     -35.00     0.907
     -34.00     0.945
     -33.00     0.999
     -32.00     1.071
     -31.00     1.162
     -30.00     1.274
     -29.00     1.406
     -28.00     1.560
     -27.00     1.734
     -26.00     1.930
     -25.00     2.147
     -24.00     2.392
     -23.00     2.678
     -22.00     3.025
     -21.00     3.453
     -20.00     3.955
     -19.00     4.472
     -18.00     4.898
     -17.00     5.139
     -16.00     5.185
     -15.00     5.125
     -14.00     5.081
     -13.00     5.130
     -12.00     5.298
     -11.00     5.602
     -10.00     6.091
      -9.00     6.867
      -8.00     8.056
      -7.00     9.673
      -6.00    11.681
      -5.00    14.208
      -4.00    17.443
      -3.00    22.530
      -2.00    30.299
      -1.00    36.192
       0.00    33.840
       1.00    25.723
       2.00    19.012
       3.00    15.808
       4.00    14.040
       5.00    11.972
       6.00    10.910
       7.00    10.677
       8.00     9.675
       9.00     7.465
      10.00     5.026
      11.00     3.271
      12.00     2.299
      13.00     1.813
      14.00     1.541
      15.00     1.337
      16.00     1.139
      17.00     0.935
      18.00     0.749
      19.00     0.599
      20.00     0.485
      21.00     0.395
      22.00     0.322
      23.00     0.262
      24.00     0.212
      25.00     0.171
      26.00     0.137
      27.00     0.109
      28.00     0.086
      29.00     0.068
      30.00     0.053
      31.00     0.042
      32.00     0.032
      33.00     0.025
      34.00     0.019
      35.00     0.015
      36.00     0.011
      37.00     0.008
      38.00     0.006
      39.00     0.005
      40.00     0.003
      41.00     0.003
      42.00     0.002
      43.00     0.001
      44.00     0.001
      45.00     0.001
      46.00     0.001
      47.00     0.000
      48.00     0.000
      49.00     0.000
      50.00     0.000
      51.00     0.000
      52.00     0.000
      53.00     0.000
      54.00     0.000
      55.00     0.000
      56.00     0.000
      57.00     0.000
      58.00     0.000
      59.00     0.000
      60.00     0.000
      61.00     0.000
      62.00     0.000
      63.00     0.000
      64.00     0.000
      65.00     0.000
      66.00     0.000
      67.00     0.000
      68.00     0.000
      69.00     0.000
      70.00     0.000
      71.00     0.000
      72.00     0.000
      73.00     0.000
      74.00     0.000
      75.00     0.000
      76.00     0.000
      77.00     0.000
      78.00     0.000
      79.00     0.000
      80.00     0.000
      81.00     0.000
      82.00     0.000
      83.00     0.000
      84.00     0.000
      85.00     0.000
      86.00     0.000
      87.00     0.000
      88.00     0.000
      89.00     0.000
      90.00     0.000
      91.00     0.000
      92.00     0.000
      93.00     0.000
      94.00     0.000
      95.00     0.000
      96.00     0.000
      97.00     0.000
      98.00     0.000
      99.00     0.000
     100.00     0.000
%% HI4PI Gaussians - height, velocity, width (sigma) 
%      5.627    -6.544    12.412
%     16.332    -0.783     3.669
%     14.737    -0.794     1.313
%      1.179   -88.296    11.113
%      6.293     7.555     1.822
%      0.907   -48.479    12.559
%      1.165   -56.972     4.509
%      1.008   -17.905     2.380
%      1.602     4.081     0.824
%% Gaussians are derived from EBHIS                  
