%%    153.640    19.250    0     0.125  -100.000   100.000
% HI4PI gauss data -------------
%   l, b, RA, DEC, beam interpolated N_HI, N_H2_dark, N_H2_tot  
% 153.640 ;  19.250 ;  93.819 ;  60.779 ;  0.921E+21 ;  0.357E+21 ;  0.321E+21
% nearest HEALPix pixel: l, b, RA, DEC, N_HI, N_H2_dark, N_H2_tot
% 153.633 ;  19.274 ;  93.859 ;  60.794 ;  0.907E+21 ;  0.358E+21 ;  0.322E+21
% GASS III survey --------------
% NH - median within 6 arcmin radius   0.00    
% NH - mean within specified beam      0.00    
% EBHIS survey -----------------
% NH  within specified beam           0.919E+21
%%EBHIS   160  datapoints: v_lsr [km/s] and T_B [K]
     -99.09     0.401
     -97.80     0.406
     -96.52     0.442
     -95.23     0.453
     -93.94     0.548
     -92.65     0.566
     -91.36     0.675
     -90.08     0.765
     -88.79     0.876
     -87.50     0.970
     -86.21     0.900
     -84.92     1.024
     -83.63     1.074
     -82.35     1.177
     -81.06     1.160
     -79.77     1.180
     -78.48     1.208
     -77.19     1.231
     -75.90     1.136
     -74.62     1.156
     -73.33     1.106
     -72.04     1.016
     -70.75     1.129
     -69.46     0.877
     -68.18     0.895
     -66.89     0.841
     -65.60     0.896
     -64.31     0.863
     -63.02     0.929
     -61.73     0.958
     -60.45     0.985
     -59.16     1.110
     -57.87     0.984
     -56.58     0.982
     -55.29     1.013
     -54.00     1.162
     -52.72     1.087
     -51.43     1.113
     -50.14     1.093
     -48.85     0.974
     -47.56     1.009
     -46.28     1.039
     -44.99     0.991
     -43.70     1.060
     -42.41     0.979
     -41.12     0.981
     -39.83     0.880
     -38.55     0.917
     -37.26     0.877
     -35.97     0.879
     -34.68     0.875
     -33.39     0.833
     -32.10     1.025
     -30.82     1.266
     -29.53     1.340
     -28.24     1.585
     -26.95     1.892
     -25.66     2.238
     -24.38     2.505
     -23.09     2.968
     -21.80     3.261
     -20.51     3.677
     -19.22     4.203
     -17.93     4.707
     -16.65     5.166
     -15.36     5.572
     -14.07     5.709
     -12.78     5.739
     -11.49     5.807
     -10.20     5.880
      -8.92     6.063
      -7.63     6.905
      -6.34     8.720
      -5.05    12.506
      -3.76    17.894
      -2.48    22.758
      -1.19    24.873
       0.10    28.327
       1.39    30.997
       2.68    23.742
       3.97    16.296
       5.25    13.555
       6.54    13.754
       7.83    13.439
       9.12    12.847
      10.41    10.734
      11.70     6.235
      12.98     2.893
      14.27     1.687
      15.56     1.202
      16.85     0.926
      18.14     0.651
      19.42     0.446
      20.71     0.370
      22.00     0.267
      23.29     0.178
      24.58     0.112
      25.87     0.080
      27.15     0.040
      28.44     0.063
      29.73    -0.056
      31.02    -0.080
      32.31    -0.019
      33.60    -0.079
      34.88    -0.090
      36.17    -0.024
      37.46     0.034
      38.75    -0.081
      40.04     0.002
      41.32    -0.082
      42.61    -0.021
      43.90    -0.011
      45.19     0.007
      46.48    -0.057
      47.77    -0.003
      49.05     0.051
      50.34     0.160
      51.63     0.095
      52.92    -0.001
      54.21    -0.025
      55.50     0.013
      56.78     0.057
      58.07    -0.007
      59.36     0.038
      60.65    -0.001
      61.94    -0.040
      63.22     0.053
      64.51    -0.109
      65.80    -0.027
      67.09    -0.013
      68.38    -0.050
      69.67    -0.096
      70.95    -0.088
      72.24     0.021
      73.53    -0.028
      74.82     0.060
      76.11     0.021
      77.40     0.028
      78.68     0.044
      79.97     0.052
      81.26     0.018
      82.55     0.000
      83.84     0.049
      85.12     0.105
      86.41    -0.019
      87.70    -0.011
      88.99    -0.012
      90.28     0.055
      91.57    -0.039
      92.85    -0.044
      94.14    -0.024
      95.43    -0.016
      96.72     0.030
      98.01    -0.016
      99.30    -0.056
%%GASS      0  datapoints: v_lsr [km/s] and T_B [K]
%%gauss   201  datapoints: v_lsr [km/s] and T_B [K]
    -100.00     0.304
     -99.00     0.334
     -98.00     0.367
     -97.00     0.404
     -96.00     0.444
     -95.00     0.489
     -94.00     0.538
     -93.00     0.591
     -92.00     0.647
     -91.00     0.707
     -90.00     0.768
     -89.00     0.830
     -88.00     0.891
     -87.00     0.950
     -86.00     1.005
     -85.00     1.055
     -84.00     1.097
     -83.00     1.131
     -82.00     1.156
     -81.00     1.172
     -80.00     1.179
     -79.00     1.177
     -78.00     1.168
     -77.00     1.153
     -76.00     1.133
     -75.00     1.110
     -74.00     1.086
     -73.00     1.062
     -72.00     1.039
     -71.00     1.018
     -70.00     1.001
     -69.00     0.986
     -68.00     0.975
     -67.00     0.968
     -66.00     0.963
     -65.00     0.962
     -64.00     0.963
     -63.00     0.967
     -62.00     0.972
     -61.00     0.978
     -60.00     0.986
     -59.00     0.994
     -58.00     1.003
     -57.00     1.011
     -56.00     1.019
     -55.00     1.026
     -54.00     1.032
     -53.00     1.036
     -52.00     1.039
     -51.00     1.040
     -50.00     1.039
     -49.00     1.036
     -48.00     1.031
     -47.00     1.023
     -46.00     1.013
     -45.00     1.002
     -44.00     0.988
     -43.00     0.974
     -42.00     0.958
     -41.00     0.943
     -40.00     0.928
     -39.00     0.915
     -38.00     0.904
     -37.00     0.899
     -36.00     0.901
     -35.00     0.913
     -34.00     0.939
     -33.00     0.983
     -32.00     1.049
     -31.00     1.143
     -30.00     1.269
     -29.00     1.429
     -28.00     1.623
     -27.00     1.848
     -26.00     2.099
     -25.00     2.370
     -24.00     2.654
     -23.00     2.948
     -22.00     3.255
     -21.00     3.579
     -20.00     3.927
     -19.00     4.296
     -18.00     4.673
     -17.00     5.032
     -16.00     5.340
     -15.00     5.569
     -14.00     5.707
     -13.00     5.769
     -12.00     5.791
     -11.00     5.818
     -10.00     5.902
      -9.00     6.112
      -8.00     6.579
      -7.00     7.565
      -6.00     9.484
      -5.00    12.684
      -4.00    16.933
      -3.00    21.060
      -2.00    23.705
      -1.00    25.213
       0.00    27.976
       1.00    31.031
       2.00    28.537
       3.00    21.496
       4.00    16.046
       5.00    13.818
       6.00    13.590
       7.00    13.773
       8.00    13.308
       9.00    12.928
      10.00    11.761
      11.00     8.737
      12.00     5.226
      13.00     2.920
      14.00     1.853
      15.00     1.368
      16.00     1.078
      17.00     0.858
      18.00     0.679
      19.00     0.532
      20.00     0.411
      21.00     0.314
      22.00     0.238
      23.00     0.178
      24.00     0.132
      25.00     0.097
      26.00     0.072
      27.00     0.053
      28.00     0.039
      29.00     0.029
      30.00     0.022
      31.00     0.017
      32.00     0.014
      33.00     0.011
      34.00     0.009
      35.00     0.008
      36.00     0.007
      37.00     0.006
      38.00     0.005
      39.00     0.005
      40.00     0.004
      41.00     0.004
      42.00     0.003
      43.00     0.003
      44.00     0.003
      45.00     0.002
      46.00     0.002
      47.00     0.002
      48.00     0.002
      49.00     0.001
      50.00     0.001
      51.00     0.001
      52.00     0.001
      53.00     0.001
      54.00     0.001
      55.00     0.001
      56.00     0.001
      57.00     0.001
      58.00     0.000
      59.00     0.000
      60.00     0.000
      61.00     0.000
      62.00     0.000
      63.00     0.000
      64.00     0.000
      65.00     0.000
      66.00     0.000
      67.00     0.000
      68.00     0.000
      69.00     0.000
      70.00     0.000
      71.00     0.000
      72.00     0.000
      73.00     0.000
      74.00     0.000
      75.00     0.000
      76.00     0.000
      77.00     0.000
      78.00     0.000
      79.00     0.000
      80.00     0.000
      81.00     0.000
      82.00     0.000
      83.00     0.000
      84.00     0.000
      85.00     0.000
      86.00     0.000
      87.00     0.000
      88.00     0.000
      89.00     0.000
      90.00     0.000
      91.00     0.000
      92.00     0.000
      93.00     0.000
      94.00     0.000
      95.00     0.000
      96.00     0.000
      97.00     0.000
      98.00     0.000
      99.00     0.000
     100.00     0.000
%% HI4PI Gaussians - height, velocity, width (sigma) 
%      8.511    -0.845     8.109
%      1.006   -52.561    28.954
%     13.649    -2.064     1.969
%     18.740     1.445     1.399
%      8.016     6.774     2.538
%      2.061   -21.996     4.685
%      2.768   -15.031     3.444
%      3.633    10.147     1.393
%      0.575   -81.785     7.297
%% Gaussians are derived from EBHIS                  
